Time(sec)	Force(kgf)	LGauge(mm)	Strain	Stress(MPa)	Stroke(mm)	TC1(C)
0.00000	-122.57	-0.076217	-0.005137	-15.219	0.11416	35.039
1.00000	-122.56	-5.2999e-05	-8.0334e-07	-15.299	0.11569	35.097
2.00000	-122.58	-0.0002177	-1.1596e-05	-15.302	0.11534	35.072
3.00000	-122.34	-0.00027487	-1.6628e-05	-15.277	0.11561	35.028
4.00000	-122.49	-0.00034839	-2.1494e-05	-15.307	0.11562	34.977
5.00000	-122.7	-0.00047769	-3.151e-05	-15.318	0.1167	34.953
6.00000	-122.57	-0.0005457	-3.3991e-05	-15.304	0.11795	34.916
7.00000	-122.55	-0.00062842	-4.0804e-05	-15.299	0.11949	34.857
8.00000	-125.09	-0.00033964	-2.0823e-05	-15.621	0.12043	34.893
9.00000	-134.23	-0.00076143	-5.2081e-05	-16.767	0.12099	36.395
10.00000	-144.99	-0.00097005	-6.5505e-05	-18.102	0.12147	41.48
11.00000	-153.74	-0.00082097	-5.5688e-05	-19.198	0.1209	48.913
12.00000	-159.05	-0.0001594	-1.2783e-05	-19.861	0.12087	56.93
13.00000	-161.62	0.00053529	3.4065e-05	-20.187	0.12143	64.134
14.00000	-163.74	0.0010439	6.8847e-05	-20.448	0.1212	69.929
15.00000	-165.28	0.0015236	0.00010124	-20.636	0.12019	74.373
15.58840	-166.38	0.00208	0.00013655	-20.788	0.11983	76.606
16.58840	-168.8	0.0030848	0.00020632	-21.08	0.12156	80.617
17.58840	-169.99	0.0048517	0.00032319	-21.228	0.12074	85.212
18.58840	-170.88	0.006753	0.00044885	-21.342	0.11994	90.369
19.58840	-171.73	0.0086133	0.00057543	-21.463	0.12096	95.884
19.60830	-171.77	0.0086532	0.00057844	-21.468	0.12083	95.995
20.60830	-172.47	0.010551	0.00070586	-21.559	0.12015	101.39
21.60830	-173.33	0.012354	0.00082501	-21.663	0.12064	106.47
22.60830	-173.65	0.014245	0.00095038	-21.703	0.11978	111.27
23.60830	-174.28	0.01619	0.0010821	-21.785	0.11958	116.01
24.60830	-174.91	0.018392	0.0012294	-21.87	0.12041	120.91
25.60830	-175.39	0.020615	0.0013774	-21.933	0.12043	125.94
26.60830	-175.73	0.022755	0.0015185	-21.975	0.12008	131.02
27.60830	-176.08	0.024748	0.0016529	-22.017	0.11969	136.12
28.60830	-176.42	0.027006	0.001803	-22.072	0.12048	141.06
29.60830	-177.03	0.029376	0.0019599	-22.148	0.1195	146.08
30.60830	-177.53	0.031564	0.0021029	-22.217	0.11886	151.12
31.60830	-177.83	0.033825	0.0022543	-22.253	0.11964	155.99
32.60830	-177.84	0.036558	0.0024345	-22.263	0.11834	160.75
33.60830	-177.86	0.039164	0.0026061	-22.276	0.11823	165.73
34.60830	-178.19	0.041812	0.0027824	-22.309	0.11791	170.9
35.60830	-178.38	0.044483	0.0029593	-22.333	0.11817	176
36.60830	-178.38	0.047021	0.0031278	-22.342	0.11634	181.05
37.60830	-178.62	0.04969	0.0033052	-22.38	0.11694	186.03
38.60830	-178.58	0.052377	0.003485	-22.382	0.11622	190.97
39.60830	-178.87	0.055253	0.0036753	-22.414	0.11513	195.88
40.60830	-178.94	0.057808	0.0038458	-22.422	0.11492	200.92
41.60830	-178.93	0.060765	0.0040412	-22.427	0.11559	206.03
42.60830	-179.09	0.063607	0.0042319	-22.46	0.11792	211.13
43.60830	-179.39	0.066397	0.0044151	-22.499	0.1175	216.15
44.60830	-179.4	0.069216	0.0046027	-22.501	0.11594	221.07
45.60830	-179.25	0.072164	0.0047996	-22.49	0.11359	226.03
46.60830	-179.26	0.075158	0.0050005	-22.495	0.11407	231.01
47.60830	-179.47	0.07809	0.0051923	-22.532	0.11399	235.98
48.60830	-179.59	0.081191	0.0054007	-22.545	0.11481	240.98
49.60830	-179.52	0.084194	0.0056004	-22.541	0.1125	246.06
50.60830	-179.45	0.087262	0.0058037	-22.539	0.11036	251.04
51.60830	-179.7	0.090187	0.0059968	-22.58	0.11201	256.1
52.60830	-179.91	0.092966	0.0061815	-22.609	0.11342	261.16
53.60830	-180.01	0.096035	0.006384	-22.624	0.11209	266.19
54.60830	-179.87	0.099066	0.0065842	-22.609	0.11184	271.16
55.60830	-179.99	0.1021	0.0067846	-22.624	0.11162	276.06
56.51030	-180.08	0.10496	0.0069741	-22.65	0.11296	280.53
57.51030	-180.21	0.10815	0.0071861	-22.659	0.11165	285.56
58.51030	-180.26	0.11133	0.0073983	-22.664	0.11223	290.59
58.74870	-180.42	0.11209	0.0074475	-22.69	0.11215	291.79
59.74870	-180.45	0.1152	0.0076496	-22.701	0.11066	296.85
60.74870	-180.37	0.11838	0.007861	-22.702	0.11031	301.74
61.74870	-180.37	0.12152	0.0080687	-22.708	0.11065	306.77
62.74870	-180.54	0.1244	0.0082587	-22.733	0.11087	311.77
63.74870	-180.64	0.12745	0.0084603	-22.745	0.11096	316.77
64.74870	-180.69	0.13064	0.0086705	-22.756	0.11133	321.86
65.74870	-180.63	0.13385	0.0088817	-22.756	0.11176	326.9
66.74870	-180.81	0.13697	0.0090884	-22.791	0.11082	331.9
67.74870	-181.06	0.14003	0.0092929	-22.822	0.11143	336.92
68.74870	-181.15	0.14303	0.0094886	-22.83	0.11158	342.06
69.74870	-181.14	0.14584	0.0096741	-22.835	0.11169	347.3
70.74870	-181.26	0.14846	0.009849	-22.856	0.11113	352.37
71.74870	-181.4	0.15116	0.010031	-22.881	0.11164	357.24
72.74870	-181.49	0.1539	0.01021	-22.894	0.11159	361.97
73.74870	-181.41	0.15677	0.010397	-22.887	0.10841	366.67
74.74870	-181.42	0.15982	0.010601	-22.886	0.10926	371.53
75.74870	-181.41	0.16308	0.010818	-22.898	0.10974	376.54
76.74870	-181.51	0.16618	0.011021	-22.916	0.10946	381.61
77.74870	-181.8	0.16937	0.011231	-22.953	0.11082	386.74
78.74870	-181.78	0.17239	0.01143	-22.957	0.11184	391.79
79.74870	-181.8	0.17555	0.011639	-22.963	0.11149	396.81
80.74870	-181.87	0.17859	0.011837	-22.984	0.11144	401.83
81.74870	-182	0.18178	0.012048	-23.007	0.11116	406.84
82.74870	-182.19	0.18477	0.012244	-23.026	0.11021	411.77
83.74870	-182.15	0.1878	0.012444	-23.022	0.11023	416.66
84.74870	-182.16	0.19076	0.012639	-23.034	0.11162	421.59
85.74870	-182.42	0.19393	0.012847	-23.08	0.11163	426.48
86.74870	-182.57	0.19731	0.013067	-23.101	0.11021	431.45
87.74870	-182.57	0.20069	0.013291	-23.101	0.1105	436.67
88.74870	-182.61	0.20401	0.013507	-23.111	0.11054	441.79
89.74870	-182.55	0.2074	0.013731	-23.115	0.11108	446.92
90.74870	-182.84	0.21056	0.013938	-23.153	0.11134	451.99
91.74870	-182.97	0.21374	0.01415	-23.17	0.11052	456.85
92.74870	-183.02	0.21697	0.01436	-23.183	0.11154	461.87
93.74870	-183.01	0.22021	0.014574	-23.19	0.11166	466.8
94.74870	-183.15	0.22338	0.014782	-23.217	0.11134	471.73
95.74870	-183.35	0.22659	0.014994	-23.239	0.11123	476.68
96.74870	-183.41	0.22995	0.015215	-23.248	0.11163	481.65
97.47830	-183.36	0.23232	0.015373	-23.254	0.11144	485.37
98.47830	-183.49	0.23576	0.015599	-23.27	0.11166	490.36
98.50490	-183.52	0.23583	0.015603	-23.276	0.11177	490.5
99.50490	-183.55	0.23921	0.015825	-23.28	0.1117	495.51
100.50490	-183.55	0.24262	0.016049	-23.288	0.1117	500.58
101.50490	-183.65	0.24591	0.016265	-23.309	0.11236	505.61
102.50490	-183.83	0.24913	0.016473	-23.342	0.11318	510.65
103.50490	-184.02	0.25223	0.016675	-23.359	0.11296	515.6
104.50490	-184.01	0.25535	0.016882	-23.365	0.1141	520.51
105.50490	-184.01	0.25822	0.017071	-23.374	0.11394	525.49
106.50490	-184.18	0.26125	0.017269	-23.401	0.11391	530.37
107.50490	-184.33	0.26447	0.017478	-23.42	0.11354	535.26
108.50490	-184.36	0.26788	0.017702	-23.425	0.11443	540.22
109.50490	-184.18	0.27141	0.017935	-23.41	0.11514	545.26
110.50490	-184.41	0.27463	0.018146	-23.452	0.11518	550.39
111.50490	-184.58	0.27771	0.018347	-23.482	0.11586	555.39
112.50490	-184.7	0.28102	0.018563	-23.49	0.11571	560.41
113.50490	-184.63	0.28447	0.018785	-23.491	0.11504	565.44
114.50490	-184.8	0.28748	0.018982	-23.522	0.11515	570.6
115.50490	-185.09	0.29041	0.019174	-23.563	0.11482	575.68
116.50490	-185.14	0.29332	0.019364	-23.565	0.11516	580.68
117.50490	-185.12	0.2965	0.019574	-23.571	0.11676	585.61
118.50490	-185.21	0.29983	0.019795	-23.592	0.11631	590.54
119.50490	-185.47	0.30336	0.020022	-23.635	0.11459	595.54
120.50490	-185.67	0.30673	0.020242	-23.657	0.11456	600.5
121.50490	-185.79	0.30986	0.020447	-23.671	0.11402	605.73
122.50490	-185.84	0.31294	0.020649	-23.695	0.11459	610.82
123.50490	-186.04	0.31596	0.020846	-23.718	0.11453	615.94
124.50490	-186.12	0.31896	0.021044	-23.729	0.11411	620.95
125.50490	-186.19	0.32193	0.021239	-23.742	0.11439	625.9
126.50490	-186.19	0.32489	0.021432	-23.75	0.11497	630.73
127.50490	-186.56	0.32784	0.021623	-23.809	0.11417	635.58
128.50490	-186.7	0.33101	0.021827	-23.826	0.11536	640.43
129.50490	-186.71	0.334	0.022023	-23.832	0.11504	645.37
130.50490	-186.73	0.33724	0.022238	-23.838	0.1154	650.43
131.50490	-186.84	0.3404	0.022442	-23.86	0.11539	655.46
132.50490	-187.03	0.34353	0.022647	-23.887	0.1152	660.58
133.50490	-187.05	0.34657	0.022846	-23.887	0.11578	665.65
134.50490	-187.1	0.34981	0.023055	-23.903	0.1135	670.65
135.50490	-187.1	0.35283	0.023252	-23.916	0.11233	675.65
136.50490	-187.34	0.35583	0.023445	-23.951	0.11222	680.61
137.50490	-187.44	0.35864	0.023626	-23.96	0.11193	685.56
138.42380	-187.39	0.36115	0.023791	-23.959	0.11206	690.06
139.42380	-187.47	0.36397	0.023975	-23.979	0.11133	694.99
140.42380	-187.79	0.36684	0.024162	-24.019	0.11179	699.91
141.42380	-187.63	0.36982	0.024356	-24.006	0.11226	704.74
142.42380	-187.73	0.37276	0.024547	-24.021	0.11202	709.66
143.42380	-187.88	0.37551	0.024724	-24.051	0.11309	714.63
143.47080	-187.91	0.37566	0.024733	-24.057	0.11314	714.86
144.47080	-188.02	0.37852	0.024923	-24.07	0.11227	719.84
145.47080	-188.18	0.3806	0.025057	-24.093	0.11221	724.96
146.47080	-186.2	0.38108	0.025088	-23.839	0.11083	730.05
147.47080	-181.28	0.38106	0.025087	-23.215	0.11051	734.98
148.47080	-175.46	0.381	0.025086	-22.469	0.11034	739.53
149.47080	-169.1	0.38083	0.025072	-21.647	0.11109	743.05
150.47080	-164.88	0.38091	0.025078	-21.104	0.11089	744.62
151.47080	-163.25	0.38101	0.025088	-20.9	0.11079	744.17
152.47080	-162.87	0.38111	0.025096	-20.85	0.1102	744.36
153.47080	-184.6	0.38297	0.025216	-23.63	0.11128	748.25
154.47080	-187.87	0.39495	0.025994	-24.075	0.11211	767.58
155.47080	-176.59	0.39742	0.026154	-22.635	0.11251	796.84
156.47080	-150.28	0.38922	0.025622	-19.251	0.11317	807.78
157.47080	-144.99	0.37954	0.024989	-18.557	0.11293	807
158.47080	-142.99	0.37118	0.024447	-18.293	0.11229	801.37
159.47080	-144.41	0.36904	0.024305	-18.474	0.11047	796.67
160.47080	-135.07	0.37179	0.024485	-17.287	0.11045	797.12
161.47080	-96.838	0.37996	0.025015	-12.396	0.1107	800.95
162.47080	-96.335	0.38485	0.025333	-12.339	0.11054	806.67
163.47080	-96.913	0.38912	0.025611	-12.414	0.11102	813.07
164.47080	-97.208	0.39253	0.025833	-12.457	0.11062	819.31
165.47080	-97.621	0.39548	0.026025	-12.512	0.11108	824.98
166.47080	-97.954	0.39832	0.026208	-12.553	0.11232	830.2
167.47080	-97.85	0.40119	0.026395	-12.546	0.11207	835
168.47080	-97.845	0.40459	0.026616	-12.551	0.1112	839.84
169.47080	-98.048	0.40807	0.026843	-12.581	0.11049	844.72
170.47080	-98.022	0.41177	0.027082	-12.571	0.11073	849.68
171.47080	-97.772	0.41558	0.027329	-12.548	0.11122	854.82
172.47080	-97.818	0.41927	0.02757	-12.553	0.11063	859.95
173.47080	-97.894	0.42307	0.027816	-12.572	0.11075	865.07
174.47080	-97.994	0.42664	0.028046	-12.585	0.11091	870.12
175.47080	-97.986	0.43036	0.028287	-12.583	0.11126	875.11
176.47080	-97.899	0.43439	0.02855	-12.58	0.111	880.14
177.47080	-98.088	0.43843	0.028813	-12.606	0.11165	885.29
178.47080	-98.149	0.44245	0.029074	-12.617	0.11193	890.27
179.37700	-98.094	0.44607	0.029307	-12.611	0.1124	894.75
180.37700	-98.21	0.45018	0.029574	-12.627	0.11316	899.96
181.37700	-98.213	0.45402	0.029823	-12.632	0.11326	904.78
182.37700	-98.345	0.4579	0.030075	-12.652	0.11361	909.89
182.60850	-98.305	0.45877	0.03013	-12.648	0.11467	911.03
183.60850	-98.31	0.46284	0.030392	-12.655	0.11402	916.16
184.60850	-98.336	0.46695	0.030656	-12.658	0.11294	921.23
185.60850	-98.264	0.47073	0.030901	-12.655	0.11236	926.24
186.60850	-98.346	0.47451	0.031144	-12.672	0.11321	931.28
187.60850	-98.46	0.47829	0.03139	-12.688	0.11324	936.16
188.60850	-98.446	0.48236	0.03165	-12.686	0.11251	940.96
189.60850	-98.501	0.48641	0.031913	-12.691	0.11229	946.13
190.60850	-98.489	0.49026	0.032161	-12.699	0.1123	951.17
191.60850	-98.563	0.49381	0.03239	-12.718	0.11206	956.28
192.60850	-98.796	0.49722	0.032611	-12.742	0.11302	961.24
193.60850	-98.832	0.50078	0.03284	-12.752	0.11383	966.16
194.60850	-99.044	0.50434	0.033067	-12.779	0.11352	971.19
195.60850	-98.938	0.50781	0.033291	-12.779	0.11352	976.14
196.60850	-99.203	0.51121	0.033512	-12.813	0.11193	981.12
197.60850	-99.251	0.51458	0.03373	-12.821	0.11248	986.03
198.60850	-99.391	0.51771	0.033933	-12.839	0.1111	990.86
199.60850	-99.341	0.5211	0.034154	-12.834	0.11309	995.79
200.60850	-99.363	0.52467	0.03438	-12.846	0.11213	1000.9
201.60850	-99.508	0.52794	0.034592	-12.863	0.11263	1006
202.60850	-99.623	0.53097	0.034791	-12.878	0.11243	1011
203.60850	-99.733	0.53394	0.034982	-12.893	0.11248	1016
204.60850	-99.782	0.537	0.035176	-12.904	0.11367	1021
205.60850	-99.777	0.53999	0.035367	-12.912	0.11412	1026.1
206.60850	-99.879	0.5421	0.035507	-12.927	0.11432	1031.4
207.60850	-100.35	0.54363	0.035606	-12.979	0.11508	1036.4
208.60850	-100.27	0.54539	0.035717	-12.97	0.1149	1041.2
209.60850	-100.47	0.54702	0.035819	-13.003	0.11518	1046
210.60850	-100.45	0.54873	0.03593	-12.999	0.11312	1050.9
211.60850	-100.77	0.55022	0.036027	-13.048	0.11266	1055.8
212.60850	-101.04	0.55132	0.036098	-13.078	0.11365	1061
213.60850	-101.35	0.5516	0.036115	-13.114	0.11442	1065.8
214.60850	-101.67	0.5517	0.036123	-13.162	0.11378	1070.5
215.60850	-102.06	0.5519	0.036133	-13.215	0.11325	1075.5
216.60850	-101.78	0.55211	0.036145	-13.181	0.11209	1080.8
217.60850	-100.51	0.55218	0.03615	-13.009	0.11257	1085.9
218.60850	-99.116	0.55228	0.036155	-12.828	0.1119	1091
219.60850	-97.798	0.5523	0.036157	-12.663	0.11193	1096.3
220.41430	-96.755	0.55223	0.036153	-12.521	0.11249	1100.2
221.41430	-95.143	0.55225	0.036154	-12.314	0.11211	1105.3
221.73930	-94.531	0.55237	0.036161	-12.238	0.11211	1106.9
222.73930	-93.211	0.55241	0.036164	-12.063	0.11312	1111.7
223.73930	-91.77	0.55247	0.036172	-11.879	0.11315	1116.8
224.73930	-90.424	0.55246	0.036173	-11.705	0.11307	1121.7
225.73930	-89.42	0.55267	0.036184	-11.582	0.11346	1126.9
226.73930	-87.575	0.5528	0.036191	-11.337	0.11482	1132.1
227.73930	-85.893	0.5527	0.036186	-11.114	0.11371	1137
228.73930	-84.42	0.55265	0.036183	-10.933	0.11336	1142
229.73930	-83.41	0.55252	0.036174	-10.802	0.11241	1147
230.73930	-82.101	0.55236	0.036164	-10.626	0.11223	1151.9
231.73930	-80.892	0.5524	0.03617	-10.469	0.11089	1156.8
232.73930	-79.816	0.55235	0.036168	-10.336	0.112	1161.6
233.73930	-78.948	0.55256	0.036179	-10.224	0.11071	1166.7
234.73930	-78.086	0.55269	0.036186	-10.105	0.11182	1171.7
235.73930	-77.138	0.55251	0.036172	-9.9858	0.11212	1176.8
236.73930	-76.135	0.55235	0.036162	-9.8559	0.11212	1181.8
237.73930	-75.444	0.55226	0.036158	-9.7657	0.11302	1186.9
238.73930	-74.757	0.55232	0.036162	-9.6776	0.11246	1191.9
239.73930	-73.95	0.55238	0.036165	-9.5734	0.11264	1197
240.73930	-72.434	0.55179	0.036127	-9.3796	0.11338	1201.6
241.73930	-69.227	0.54994	0.036006	-8.9596	0.11467	1203.2
242.73930	-66.469	0.54858	0.035918	-8.604	0.11236	1203
243.73930	-64.301	0.54763	0.035857	-8.3208	0.11173	1202
244.73930	-63.148	0.54712	0.035824	-8.1749	0.11049	1201.3
245.73930	-62.665	0.54699	0.035817	-8.1153	0.11108	1201
246.73930	-63	0.54675	0.035801	-8.1538	0.10931	1200.7
247.73930	-62.336	0.5462	0.035765	-8.0634	0.11089	1200.7
248.73930	-62.613	0.54541	0.035718	-8.0986	0.10999	1200.5
249.73930	-62.492	0.5447	0.035671	-8.0904	0.1107	1200.3
250.73930	-62.458	0.54376	0.03561	-8.0801	0.11103	1200.2
251.73930	-62.239	0.54291	0.035555	-8.0499	0.11186	1200.2
252.73930	-62.16	0.54206	0.035502	-8.0431	0.11153	1200.2
253.73930	-61.977	0.54134	0.035454	-8.02	0.11213	1200.2
254.73930	-61.475	0.54077	0.035421	-7.9529	0.11316	1200.1
255.73930	-61.212	0.54005	0.035373	-7.9139	0.11158	1200.2
256.73930	-61.584	0.53943	0.035332	-7.9653	0.10976	1200.2
257.73930	-60.678	0.53899	0.035308	-7.8506	0.10951	1200.2
258.73930	-61.149	0.53809	0.035249	-7.9057	0.10926	1200.1
259.73930	-60.209	0.53803	0.035242	-7.7917	0.10948	1200.2
260.73930	-59.649	0.53767	0.035218	-7.7187	0.10954	1200.2
261.36620	-60.206	0.53715	0.035184	-7.7852	0.10996	1200.3
262.36620	-61.04	0.5364	0.035138	-7.8869	0.10987	1200.3
262.38950	-61.045	0.53639	0.035137	-7.8869	0.10987	1200.3
263.38950	-60.472	0.53636	0.035134	-7.8166	0.1095	1200.5
264.38950	-59.46	0.5361	0.035116	-7.6948	0.11104	1200.4
265.38950	-60.618	0.5354	0.035074	-7.8375	0.11066	1200.2
266.38950	-59.923	0.53551	0.035079	-7.7476	0.11165	1200.2
267.38950	-59.386	0.53553	0.035079	-7.6875	0.10986	1200.2
268.38950	-59.224	0.53547	0.035075	-7.6592	0.10851	1200.2
269.38950	-58.751	0.53567	0.03509	-7.5963	0.10935	1200.2
270.38950	-58.379	0.5357	0.035089	-7.5474	0.10885	1200.2
271.38950	-59.739	0.53505	0.035047	-7.7278	0.10889	1200.3
272.38950	-60.02	0.53459	0.03502	-7.762	0.10854	1200.3
273.38950	-59.289	0.53478	0.035031	-7.6678	0.10881	1200.3
274.38950	-59.594	0.53445	0.035012	-7.7056	0.10907	1200.3
275.38950	-59.97	0.53382	0.034972	-7.7616	0.10852	1200.3
276.38950	-59.269	0.53382	0.034972	-7.6659	0.10863	1200.2
277.38950	-58.745	0.53383	0.034968	-7.5954	0.1086	1200.3
278.38950	-59.959	0.53311	0.034926	-7.7549	0.1083	1200.2
279.38950	-59.489	0.5328	0.034907	-7.6954	0.11025	1200.3
280.38950	-59.255	0.53309	0.034925	-7.6668	0.10929	1200.2
281.38950	-58.71	0.533	0.034917	-7.5891	0.11	1200.3
282.38950	-58.11	0.53266	0.034897	-7.5143	0.10979	1200.3
283.38950	-59.765	0.53189	0.034853	-7.7284	0.11112	1200.1
284.38950	-59.701	0.53201	0.034856	-7.719	0.10993	1200.1
285.38950	-59.066	0.53172	0.034837	-7.6347	0.10981	1200.2
286.38950	-58.246	0.53156	0.034827	-7.5306	0.11066	1200.1
287.38950	-59.576	0.53121	0.034805	-7.7043	0.10894	1199.9
288.38950	-60.032	0.53096	0.034785	-7.7621	0.10933	1200
289.38950	-59.68	0.53071	0.03477	-7.7173	0.11045	1200.1
290.38950	-58.983	0.53063	0.034766	-7.6247	0.10996	1200.1
291.38950	-58.704	0.53074	0.034773	-7.5922	0.10909	1200
292.38950	-59.064	0.53078	0.034774	-7.6361	0.10627	1200.2
293.38950	-58.697	0.53054	0.034757	-7.5865	0.10547	1200.3
294.38950	-57.791	0.53061	0.034763	-7.4724	0.10647	1200.3
295.38950	-59.249	0.53011	0.03473	-7.6663	0.10537	1200.1
296.38950	-59.517	0.52974	0.034704	-7.6988	0.10655	1200
297.38950	-59.454	0.5297	0.034704	-7.6829	0.10665	1200.1
298.38950	-58.856	0.5298	0.03471	-7.6116	0.10648	1200.2
299.38950	-58.286	0.52968	0.034701	-7.539	0.10696	1200.2
300.38950	-58.068	0.52947	0.034689	-7.511	0.10823	1200.1
301.38950	-59.479	0.52914	0.034672	-7.6813	0.10872	1200.1
302.38950	-58.509	0.52916	0.03467	-7.5629	0.10695	1199.9
302.42030	-58.457	0.52916	0.034669	-7.5548	0.10692	1199.9
303.42030	-58.42	0.52893	0.034654	-7.5577	0.10641	1199.7
304.42030	-60.265	0.52835	0.03462	-7.7915	0.10644	1199.7
305.42030	-59.986	0.52842	0.034628	-7.7492	0.10593	1199.8
306.42030	-59.334	0.52866	0.034639	-7.6664	0.10486	1199.7
307.42030	-59.357	0.52867	0.034641	-7.6781	0.10634	1199.7
308.42030	-59.324	0.52854	0.034631	-7.6734	0.10683	1199.7
309.42030	-59.637	0.52848	0.034629	-7.7037	0.10617	1199.7
310.42030	-59.952	0.52855	0.034633	-7.7466	0.10497	1200
311.42030	-60.035	0.52864	0.034641	-7.7618	0.10599	1200.1
312.42030	-59.684	0.52874	0.034646	-7.715	0.10558	1200.2
313.42030	-59.439	0.52882	0.034651	-7.6776	0.10552	1200.1
314.42030	-59.265	0.52891	0.034654	-7.6578	0.10669	1200.1
315.42030	-58.944	0.52882	0.034647	-7.6217	0.10687	1200
316.42030	-58.975	0.52882	0.034647	-7.6295	0.10632	1199.9
317.42030	-59.706	0.52887	0.034651	-7.7163	0.10691	1199.9
318.42030	-59.306	0.52875	0.034642	-7.6608	0.10748	1200
319.42030	-59.368	0.52884	0.034647	-7.6759	0.10776	1200
320.42030	-59.176	0.52886	0.034649	-7.6548	0.10609	1200
321.42030	-59.509	0.52886	0.034649	-7.6966	0.10552	1200
322.42030	-59.578	0.52897	0.034656	-7.6995	0.10367	1200.1
323.42030	-59.816	0.52905	0.03466	-7.7334	0.10324	1200.2
324.42030	-60.105	0.52911	0.034665	-7.7728	0.10401	1200.5
325.42030	-59.188	0.52905	0.034662	-7.6492	0.10308	1200.4
326.42030	-58.482	0.52908	0.034665	-7.5606	0.10356	1200.1
327.42030	-58.974	0.52891	0.034654	-7.6215	0.1035	1200.1
328.42030	-59.569	0.52862	0.034633	-7.7046	0.1041	1200.1
329.42030	-59.396	0.52873	0.034643	-7.683	0.10414	1200.1
330.42030	-59.05	0.52875	0.034646	-7.636	0.10505	1200.2
331.42030	-58.728	0.52883	0.034651	-7.5884	0.10603	1200.1
332.42030	-58.617	0.52896	0.034658	-7.5765	0.10495	1200.1
333.42030	-58.535	0.52904	0.034664	-7.5666	0.10675	1200.1
334.42030	-58.653	0.52906	0.034667	-7.5805	0.10495	1200.2
335.42030	-58.49	0.52915	0.034671	-7.5633	0.10335	1200.3
336.42030	-57.984	0.5292	0.034673	-7.495	0.10332	1200.1
